Wavenumber,Processed
257.39,1950
261.69,1967.4
265.99,1964.8
270.29,1963.4
274.59,1982.7
278.89,2006.5
283.18,2013.7
287.47,2059.5
291.76,2068.9
296.04,2082.4
300.33,2107.1
304.61,2122.2
308.89,2148.2
313.17,2160
317.44,2166.9
321.71,2192.3
325.98,2228.3
330.25,2251.4
334.52,2259.1
338.78,2277.3
343.04,2306.2
347.3,2334.9
351.55,2365.6
355.81,2387.3
360.06,2396.8
364.31,2455
368.55,2456.2
372.8,2484.6
377.04,2501.4
381.28,2529.3
385.52,2542
389.75,2570.9
393.98,2598.8
398.21,2620.9
402.44,2645
406.67,2684.3
410.89,2671.9
415.11,2669.8
419.33,2669.7
423.55,2688.9
427.76,2692.4
431.97,2699
436.18,2707.6
440.39,2682.6
444.59,2695.6
448.79,2671.8
452.99,2630.7
457.19,2600.6
461.39,2525.1
465.58,2483.6
469.77,2432.7
473.96,2390.7
478.14,2393.7
482.32,2430.8
486.5,2472.5
490.68,2436.3
494.86,2347.2
499.03,2165.5
503.2,1970.9
507.37,1762.8
511.54,1582.8
515.7,1451.4
519.87,1316.2
524.02,1220.7
528.18,1149.9
532.34,1095.2
536.49,1026.4
540.64,1006
544.79,967.5
548.93,926.6
553.07,912.7
557.21,895.1
561.35,874.6
565.49,852.6
569.62,851.2
573.75,832.2
577.88,820.1
582,825.7
586.13,835.3
590.25,836
594.37,843.5
598.48,871.1
602.6,871
606.71,856.6
610.82,832.5
614.93,787.8
619.03,764.8
623.13,718.3
627.23,682.6
631.33,687.7
635.42,650.4
639.52,642.8
643.61,639.8
647.69,626.4
651.78,607.7
655.86,606.6
659.94,612.8
664.02,605
668.1,582.1
672.17,587.3
676.24,600.2
680.31,579.2
684.37,567.7
688.44,575.8
692.5,561
696.56,561.7
700.61,549.9
704.67,554.1
708.72,569.7
712.77,538
716.81,554.4
720.86,556.1
724.9,532.6
728.94,552.3
732.98,555.5
737.01,542.1
741.04,564.5
745.07,542.2
749.1,553.1
753.12,552
757.15,564.3
761.17,560.6
765.18,592.2
769.2,601.9
773.21,666.8
777.22,714
781.23,739.9
785.23,785.2
789.24,805.1
793.24,815.5
797.24,808.7
801.23,798
805.23,795.7
809.22,780
813.2,769.3
817.19,766.4
821.17,746.6
825.15,720.8
829.13,718.3
833.11,688
837.08,676.9
841.05,654.4
845.02,606.3
848.99,570.5
852.95,533.6
856.92,525.7
860.88,499.5
864.83,475.3
868.79,459.6
872.74,470.4
876.69,459.3
880.63,448.3
884.58,434
888.52,416.6
892.46,426.4
896.4,413
900.33,416.1
904.27,405.4
908.2,420.6
912.12,413
916.05,407.3
919.97,390.5
923.89,395.7
927.81,388.8
931.72,383.6
935.64,384.9
939.55,365.9
943.45,377
947.36,368.6
951.26,369.8
955.16,360
959.06,345.1
962.96,357.1
966.85,358.2
970.74,350.9
974.63,361.5
978.52,337.3
982.4,354.9
986.28,351.5
990.16,353.8
994.04,350.9
997.91,332.9
1001.78,340.9
1005.65,341.7
1009.52,348.2
1013.38,351.7
1017.24,355.5
1021.1,386.7
1024.96,376.7
1028.81,380
1032.66,395.4
1036.51,410.8
1040.36,429
1044.2,431.6
1048.05,440.7
1051.88,447.1
1055.72,464.4
1059.56,439.9
1063.39,433.4
1067.22,451.6
1071.05,433.5
1074.87,435.8
1078.69,420.1
1082.51,419.8
1086.33,419.4
1090.14,409.2
1093.96,402.1
1097.77,388.7
1101.57,370.1
1105.38,380.9
1109.18,359.5
1112.98,353.1
1116.78,350.5
1120.58,347.9
1124.37,344.8
1128.16,326.8
1131.95,350.4
1135.73,342.5
1139.52,353.3
1143.3,357.4
1147.07,366.9
1150.85,362.7
1154.62,363
1158.39,372.3
1162.16,384
1165.93,376.7
1169.69,373.7
1173.45,367.4
1177.21,392.1
1180.97,371.6
1184.72,375
1188.47,382.1
1192.22,378.6
1195.97,398.9
1199.71,372.6
1203.45,357.4
1207.19,384.3
1210.93,368.2
1214.66,373.5
1218.4,376.5
1222.12,347.9
1225.85,373.5
1229.58,351.9
1233.3,373.8
1237.02,344
1240.73,350.2
1244.45,344.9
1248.16,351
1251.87,347.3
1255.58,326
1259.28,339.3
1262.98,321.2
1266.68,337.3
1270.38,330.1
1274.08,330.3
1277.77,336.8
1281.46,323.4
1285.15,337.5
1288.83,333.4
1292.52,316.1
1296.2,329.2
1299.87,321.4
1303.55,342.6
1307.22,330.7
1310.89,309.9
1314.56,324.5
1318.23,319.1
1321.89,316.5
1325.55,312.7
1329.21,315.9
1332.86,322.5
1336.52,314.8
1340.17,319.8
1343.82,319.7
1347.46,319
1351.11,313.8
1354.75,330.2
1358.39,327.3
1362.02,321.3
1365.66,329.3
1369.29,335.6
1372.92,334.6
1376.54,326.4
1380.17,331.7
1383.79,321.5
1387.41,337.1
1391.02,328.4
1394.64,335.9
1398.25,317.9
1401.86,337.5
1405.47,337
1409.07,326.8
1412.67,341.6
1416.27,329.8
1419.87,333.2
1423.47,345.6
1427.06,345.8
1430.65,342.8
1434.24,351
1437.82,356
1441.4,355
1444.98,348.9
1448.56,371.7
1452.14,373.1
1455.71,378.6
1459.28,378.8
1462.85,376.7
1466.41,380.7
1469.98,387.6
1473.54,379.2
1477.1,377.5
1480.65,403.9
1484.21,393.4
1487.76,396.5
1491.3,407.7
1494.85,425.8
1498.39,426.6
1501.94,426.9
1505.47,450.7
1509.01,470.9
1512.55,452.9
1516.08,472.7
1519.61,479
1523.13,497.6
1526.66,502.8
1530.18,501.5
1533.7,509.8
1537.22,525
1540.73,538.3
1544.24,540.8
1547.75,564.4
1551.26,612.6
1554.76,619.3
1558.27,622.6
1561.77,599.4
1565.26,613
1568.76,613.9
1572.25,637.7
1575.74,655.3
1579.23,654.9
1582.72,663.8
1586.2,671
1589.68,693.8
1593.16,707.9
1596.63,695.5
1600.11,696
1603.58,731.2
1607.05,750.9
1610.51,766
1613.98,771.6
1617.44,794.6
1620.9,804.8
1624.35,819.2
1627.81,832
1631.26,837.5
1634.71,856.7
1638.16,863.9
1641.6,877.8
1645.04,875.2
1648.48,906
1651.92,902.1
1655.36,909.5
1658.79,895.7
1662.22,883.7
1665.65,904.2
1669.07,915.8
1672.49,964.7
1675.91,946
1679.33,971.6
1682.75,955.8
1686.16,980.1
1689.57,953.3
1692.98,965.6
1696.39,976.6
1699.79,977.5
1703.19,932
1706.59,888.8
1709.99,879.8
1713.38,938.1
1716.77,1038.3
1720.16,1163.2
1723.55,1254.4
1726.93,1297.8
1730.32,1310.1
1733.69,1242.3
1737.07,1163.4
1740.45,1060.8
1743.82,971.6
1747.19,937.6
1750.56,905
1753.92,875.1
1757.29,902
1760.65,894.7
1764,911.1
1767.36,916.7
1770.71,919.6
1774.06,923.9
1777.41,925.6
1780.76,913.6
1784.1,903.5
1787.44,879.9
1790.78,876.9
1794.12,840.6
1797.45,812.6
1800.79,804.4
1804.12,781.2
1807.44,759.4
1810.77,753.7
1814.09,734.8
1817.41,732.1
1820.73,733.2
1824.04,716.1
1827.36,707.9
1830.67,691.3
1833.98,705.2
1837.28,710.4
1840.58,696.7
1843.89,708.3
1847.18,704.1
1850.48,710
1853.77,703.3
1857.07,692.1
1860.36,685.2
1863.64,689.8
1866.93,667.5
1870.21,681.9
1873.49,674.7
1876.77,660.9
1880.04,642.3
1883.31,648.6
1886.58,654.2
1889.85,652
1893.12,635.9
1896.38,627.2
1899.64,629
1902.9,625.6
1906.16,621.5
1909.41,604.1
1912.66,599.9
1915.91,622.4
1919.16,620.6
1922.4,603.6
1925.64,605.7
1928.88,607
1932.12,601.6
1935.36,592.3
1938.59,609.5
1941.82,589.5
1945.05,596
1948.27,582.3
1951.5,587
1954.72,583.3
1957.93,590.7
1961.15,565.5
1964.36,570.3
1967.58,553.7
1970.79,563.2
1973.99,560.8
1977.2,544.1
1980.4,548.5
1983.6,547.2
1986.8,531.4
1989.99,539.5
1993.18,536.9
1996.37,531.5
1999.56,531.4
2002.75,527
2005.93,518.9
2009.11,512.2
2012.29,513.6
2015.47,497
2018.64,499.5
2021.81,499.2
2024.98,487.8
2028.15,477.5
2031.31,484.8
2034.48,465.1
2037.64,477
2040.8,471.4
2043.95,450.2
2047.1,452.2
2050.25,450.6
2053.4,436.9
2056.55,427.4
2059.69,436
2062.83,439.8
2065.97,432.3
2069.11,415.8
2072.25,416.6
2075.38,414.8
2078.51,416.7
2081.64,409.2
2084.76,402.3
2087.88,404.5
2091,394.6
2094.12,392.6
2097.24,396.1
2100.35,382.7
2103.46,374.8
2106.57,377.5
2109.68,377.5
2112.79,371
2115.89,363.8
2118.99,376.2
2122.09,344.7
2125.18,354.1
2128.27,338.8
2131.36,337.4
2134.45,337.9
2137.54,329
2140.62,329.6
2143.7,327
2146.78,326.3
2149.86,326.2
2152.94,323.6
2156.01,310.9
2159.08,309.4
2162.15,302.7
2165.21,310.3
2168.28,303.8
2171.34,303.6
2174.39,308.3
2177.45,307.8
2180.51,291
2183.56,295.1
2186.61,302.9
2189.65,294.2
2192.7,283.3
2195.74,270.7
2198.78,279.6
2201.82,276.7
2204.86,271.2
2207.89,280.3
2210.92,270.4
2213.95,280
2216.98,276.4
2220,255
2223.02,273.7
2226.04,269.1
2229.06,272.9
2232.08,253
2235.09,262.8
2238.1,271.9
2241.11,275.1
2244.12,255.1
2247.12,250.5
2250.12,263.8
2253.12,266.4
2256.12,257.2
2259.11,254.4
2262.11,258.2
2265.1,258.1
2268.09,264.2
2271.07,245.7
2274.06,247.5
2277.04,237.7
2280.02,245.9
2282.99,243.4
2285.97,235.7
2288.94,240.2
2291.91,249.8
2294.88,241.9
2297.84,242.3
2300.81,232.8
2303.77,251.3
2306.73,230.6
2309.68,241.9
2312.64,246.2
2315.59,242.1
2318.54,246.8
2321.49,247.7
2324.43,294.4
2327.38,334.7
2330.32,308.2
2333.26,300
2336.19,247.4
2339.13,232.4
2342.06,231.8
2344.99,224.9
2347.92,225.5
2350.84,226.5
2353.77,229.3
2356.69,211
2359.61,226
2362.52,206.8
2365.44,213.1
2368.35,224.1
2371.26,207.7
2374.17,201.8
2377.07,203.9
2379.98,211.4
2382.88,197.3
2385.78,193.2
2388.67,204.6
2391.57,177.7
2394.46,190.6
2397.35,207.8
2400.24,188.6
2403.12,196.6
2406.01,199.7
2408.89,186.9
2411.77,187.6
2414.64,189.7
2417.52,187.3
2420.39,171.7
2423.26,173.1
2426.13,184
2428.99,183.7
2431.86,175.8
2434.72,171.2
2437.58,187.1
2440.43,166.2
2443.29,189.3
2446.14,170.9
2448.99,166.9
2451.84,174
2454.68,160.4
2457.53,166.7
2460.37,174.3
2463.21,169.8
2466.05,168.2
2468.88,147.3
2471.71,158.3
2474.54,160.1
2477.37,152.2
2480.2,150.7
2483.02,152
2485.84,170.4
2488.66,164.6
2491.48,158.7
2494.3,155.5
2497.11,156.9
2499.92,152.2
2502.73,152.1
2505.54,148.1
2508.34,154
2511.14,142.4
2513.94,153
2516.74,156.6
2519.54,134.2
2522.33,145.7
2525.12,136.5
2527.91,134.2
2530.7,145.2
2533.48,147
2536.26,129.1
2539.04,138.1
2541.82,134.3
2544.6,129.9
2547.37,137.5
2550.14,138.2
2552.91,125.5
2555.68,124.8
2558.45,127.5
2561.21,127.6
2563.97,126.6
2566.73,120.8
2569.49,139.6
2572.24,123.4
2574.99,122.9
2577.75,124.6
2580.49,111.1
2583.24,125.3
2585.98,110.1
2588.73,126.3
2591.46,120.2
2594.2,130.9
2596.94,134.6
2599.67,111.9
2602.4,118.5
2605.13,118
2607.86,120
2610.58,120.4
2613.3,109.6
2616.03,124.2
2618.74,122.6
2621.46,118.7
2624.17,103.5
2626.89,112.5
2629.6,124.8
2632.3,102.8
2635.01,99.5
2637.71,109.5
2640.41,107.1
2643.11,105.2
2645.81,98.7
2648.5,124.4
2651.2,117
2653.89,110.6
2656.58,91.6
2659.26,112.9
2661.95,91.9
2664.63,110
2667.31,105.6
2669.99,105.7
2672.66,99.9
2675.34,101.7
2678.01,103.9
2680.68,87.7
2683.35,92.2
2686.01,100
2688.67,105.8
2691.34,103
2693.99,103.6
2696.65,96.8
2699.31,111.9
2701.96,102.4
2704.61,89.1
2707.26,92.8
2709.9,95.7
2712.55,82.3
2715.19,99.8
2717.83,81.1
2720.47,92.7
2723.11,90.4
2725.74,106.5
2728.37,91.4
2731,90.7
2733.63,83
2736.25,67.7
2738.88,89.4
2741.5,100.2
2744.12,86.9
2746.74,93.5
2749.35,97.4
2751.96,90.6
2754.57,106.8
2757.18,84.7
2759.79,91.7
2762.39,74.9
2765,86
2767.6,75.9
2770.2,85.8
2772.79,91.6
2775.39,102.8
2777.98,92.3
2780.57,71.7
2783.16,90.9
2785.74,77.5
2788.33,81.4
2790.91,82.8
2793.49,70.9
2796.07,94.1
2798.64,83.8
2801.22,79.3
2803.79,73.9
2806.36,74.5
2808.93,81.4
2811.49,81.4
2814.06,69.7
2816.62,83.6
2819.18,73.2
2821.74,83.6
2824.29,90.2
2826.84,73.5
2829.4,72.2
2831.94,72
2834.49,66.5
2837.04,80.8
2839.58,85
2842.12,91.4
2844.66,88.2
2847.2,70.4
2849.73,91.7
2852.27,78.1
2854.8,70.8
2857.33,73.9
2859.85,85.3
2862.38,77.2
2864.9,78.6
2867.42,86.3
2869.94,73.8
2872.46,82.9
2874.97,70.5
2877.48,73.3
2879.99,78.5
2882.5,73.9
2885.01,81.1
2887.51,76.3
2890.02,92.1
2892.52,78
2895.02,75.4
2897.51,75.4
2900.01,61.9
2902.5,84.2
2904.99,77.8
2907.48,75.2
2909.96,70.8
2912.45,84.1
2914.93,87
2917.41,64.5
2919.89,73.7
2922.37,78.5
2924.84,83
2927.31,84.3
2929.78,93.9
2932.25,89.6
2934.72,90.6
2937.18,93.7
2939.65,90.4
2942.11,83
2944.57,90.2
2947.02,79.8
2949.48,74.1
2951.93,96.7
2954.38,70.2
2956.83,90.7
2959.27,90.6
2961.72,101.2
2964.16,85.9
2966.6,77.5
2969.04,99.1
2971.48,63.1
2973.91,90.4
2976.35,98
2978.78,85.5
2981.2,96.9
2983.63,95.8
2986.06,91.7
2988.48,89.5
2990.9,83.8
2993.32,85.7
2995.74,107.1
2998.15,91.1
3000.56,107.1
3002.97,91.5
3005.38,96.4
3007.79,102.3
3010.2,104.3
3012.6,102.1
3015,103.7
3017.4,98.8
3019.8,91.9
3022.19,104.8
3024.59,98
3026.98,108.5
3029.37,114.2
3031.75,109.5
3034.14,112.4
3036.52,105.7
3038.91,106.3
3041.29,109.8
3043.66,108.2
3046.04,112.9
3048.41,104
3050.78,124
3053.15,124.4
3055.52,129.4
3057.89,112.5
3060.25,113.7
3062.62,122.3
3064.98,121.9
3067.33,127.5
3069.69,131.3
3072.05,137.3
3074.4,136.1
3076.75,140.5
3079.1,128
3081.44,127.4
3083.79,140.4
3086.13,146.6
3088.47,145.1
3090.81,142.8
3093.15,144.5
3095.48,145.4
3097.82,151.6
3100.15,149.4
3102.48,162.5
3104.81,132
3107.13,141.2
3109.46,159.2
3111.78,142.1
3114.1,156.7
3116.42,150.1
3118.73,173.5
3121.05,160.1
3123.36,169.1
3125.67,162.3
3127.98,168.9
3130.28,160.9
3132.59,174.9
3134.89,176.4
3137.19,177.8
3139.49,181.9
3141.79,178.1
3144.08,184.7
3146.38,184.9
3148.67,182.9
3150.96,189.1
3153.25,193.5
3155.53,172.5
3157.82,198.5
3160.1,186.6
3162.38,187.2
3164.66,197.5
3166.93,191.4
3169.21,191.1
3171.48,203.4
3173.75,189.9
3176.02,185.1
3178.29,196.4
3180.55,189.4
3182.81,195
3185.08,188.4
3187.34,189.1
3189.59,200.9
3191.85,208.7
3194.1,197
3196.35,181.7
3198.6,193.6
3200.85,196.3
3203.1,187.2
3205.34,196.5
3207.59,196.9
3209.83,205.8
3212.07,201.5
3214.3,217
3216.54,199.7
3218.77,191.7
3221,192.2
3223.23,210.9
3225.46,197.3
3227.69,191
3229.91,196.7
3232.13,211.5
3234.35,171.8
3236.57,207
3238.79,180.2
3241,188.8
3243.21,193.7
3245.43,176.1
3247.63,191.7
3249.84,173.1
3252.05,189.8
3254.25,172.7
3256.45,186.1
3258.65,176.8
3260.85,181.1
3263.05,173.5
3265.24,171.5
3267.43,170.7
3269.63,162.9
3271.81,164.3
3274,157.1
3276.19,181.1
3278.37,183.5
3280.55,179.4
3282.73,163.3
3284.91,167
3287.09,164.2
3289.26,170.2
3291.43,155
3293.6,188.3
3295.77,167.5
3297.94,168.1
3300.1,168.7
3302.27,166.6
3304.43,159.1
3306.59,160
3308.75,155.4
3310.9,151.4
3313.06,156.7
3315.21,152.6
3317.36,153.4
3319.51,154
3321.66,151.7
3323.8,139.3
3325.95,136.2
3328.09,144.6
3330.23,143.5
3332.37,147.3
3334.5,143.8
3336.64,150.2
3338.77,145.4
3340.9,153.5
3343.03,139.7
3345.16,118.8
3347.28,131.9
3349.41,121.8
3351.53,136.8
3353.65,139.6
3355.77,139.3
3357.88,142
3360,143.5
3362.11,146.8
3364.22,129.3
3366.33,126.4
3368.44,127.6
3370.55,132
3372.65,127.5
3374.75,138.9
3376.85,115.4
3378.95,125.7
3381.05,128.1