Wavenumber,Processed
257.39,8104.13
261.7,19632.29
266,15953.69
270.3,13475.93
274.6,13568.38
278.89,14044.13
283.19,14219.14
287.48,14206.57
291.77,14148.64
296.05,14144.53
300.34,14208.82
304.62,14276.37
308.9,14341.83
313.17,14363.27
317.45,14385.85
321.72,14431.35
325.99,14514.09
330.26,14568.5
334.52,14595.56
338.79,14627.08
343.05,14700.41
347.3,14733.89
351.56,14754.69
355.81,14844.35
360.07,14915.11
364.31,14961.76
368.56,15035.33
372.8,15053.95
377.05,15072.09
381.29,15089.26
385.52,15171.55
389.76,15258.22
393.99,15341.16
398.22,15477.52
402.45,15558.47
406.67,15582.13
410.9,15601.17
415.12,15606.68
419.34,15600.14
423.55,15602.02
427.77,15622.02
431.98,15632.23
436.19,15653.17
440.39,15655.1
444.6,15585.2
448.8,15480.43
453,15397.38
457.2,15239.85
461.39,15016.1
465.58,14816.14
469.78,14630.8
473.96,14508.15
478.15,14504.26
482.33,14657.59
486.51,14877.01
490.69,15024.09
494.87,14832.64
499.04,14333.89
503.21,13701.24
507.38,13067.21
511.55,12486.6
515.71,12021.77
519.87,11573.52
524.03,11272.33
528.19,11057.66
532.34,10895.59
536.5,10747.34
540.65,10611.56
544.79,10497.14
548.94,10355.16
553.08,10302.41
557.22,10239.23
561.36,10151.69
565.49,10122.59
569.63,10057.84
573.76,10011.94
577.89,10033.28
582.01,10039.19
586.14,10049.34
590.26,10069.35
594.38,10141.61
598.49,10191.93
602.61,10195.54
606.72,10141.59
610.83,10002.26
614.93,9809.06
619.04,9617.1
623.14,9446.11
627.24,9327.07
631.34,9252.03
635.43,9199.59
639.52,9126.23
643.61,9086.21
647.7,9055.84
651.79,9062.64
655.87,9066.07
659.95,9040.05
664.03,9024.26
668.1,8987.16
672.18,8968.26
676.25,8885.48
680.31,8848.61
684.38,8822.06
688.44,8771.71
692.51,8697.58
696.56,8643.5
700.62,8625.5
704.67,8620.8
708.73,8593.15
712.77,8585.59
716.82,8573.88
720.86,8561.32
724.91,8550.59
728.95,8533.76
732.98,8501.88
737.02,8512
741.05,8505.41
745.08,8469.16
749.11,8445.71
753.13,8434.39
757.15,8409.56
761.17,8398.54
765.19,8453.02
769.21,8554.73
773.22,8685.09
777.23,8830.76
781.24,8954.8
785.24,9054.86
789.24,9057.77
793.25,9088.1
797.24,9087.86
801.24,9069.95
805.23,9074.53
809.22,9058.61
813.21,9016.85
817.2,8976.39
821.18,8951.48
825.16,8917.84
829.14,8869.77
833.12,8815.35
837.09,8740.94
841.06,8651.81
845.03,8569.8
849,8486.77
852.96,8399.46
856.92,8267.96
860.88,8164.71
864.84,8120.8
868.79,8114.89
872.75,8112.56
876.69,8080.14
880.64,8049.36
884.59,8020.37
888.53,8017.5
892.47,7986.9
896.41,8009.36
900.34,8009.44
904.27,7992.07
908.2,7977.1
912.13,7985.72
916.06,7975.17
919.98,7962.1
923.9,7949.98
927.82,7928.72
931.73,7917.21
935.64,7908.5
939.55,7932.19
943.46,7946.22
947.37,7971.84
951.27,8006.02
955.17,8075.06
959.07,8081.18
962.97,8067.33
966.86,8081.28
970.75,8135.13
974.64,8148.87
978.52,8155.3
982.41,8185.59
986.29,8234.03
990.17,8258.57
994.04,8263.34
997.92,8300.15
1001.79,8337.54
1005.66,8381.62
1009.52,8442.24
1013.39,8493.88
1017.25,8589.37
1021.11,8674.93
1024.96,8751.45
1028.82,8855.62
1032.67,8979.74
1036.52,9059.56
1040.37,9147.43
1044.21,9226.43
1048.05,9321.93
1051.89,9438.12
1055.73,9476.79
1059.56,9534.22
1063.4,9591.17
1067.23,9630.39
1071.05,9726.58
1074.88,9787.13
1078.7,9847.71
1082.52,9927.34
1086.34,10034.13
1090.15,10124.07
1093.96,10211.86
1097.77,10275.32
1101.58,10357.61
1105.39,10440.72
1109.19,10517.05
1112.99,10564.74
1116.79,10631.89
1120.58,10765.83
1124.38,10902.12
1128.17,11020.35
1131.95,11107.6
1135.74,11230.78
1139.52,11352.57
1143.3,11536.68
1147.08,11697.07
1150.86,11866.98
1154.63,12074.69
1158.4,12261.83
1162.17,12363.97
1165.94,12478.72
1169.7,12618.58
1173.46,12718.53
1177.22,12864.66
1180.98,13021.36
1184.73,13171.67
1188.48,13331.35
1192.23,13359.84
1195.98,13433.42
1199.72,13540.42
1203.46,13721.67
1207.2,13876.76
1210.94,14012.92
1214.67,14197.13
1218.4,14373.58
1222.13,14560.22
1225.86,14674.39
1229.58,14849.63
1233.31,14990.01
1237.02,15072.23
1240.74,15102.76
1244.46,15172.63
1248.17,15270.25
1251.88,15359.99
1255.59,15321.95
1259.29,15386.35
1262.99,15520.36
1266.69,15643.2
1270.39,15695.61
1274.08,15707.36
1277.78,15728.29
1281.47,15841.2
1285.15,16024.48
1288.84,16209.74
1292.52,16319.97
1296.2,16375.91
1299.88,16407.54
1303.56,16415.97
1307.23,16458.3
1310.9,16476.4
1314.57,16473.31
1318.23,16446.59
1321.9,16399.8
1325.56,16416.45
1329.22,16377.97
1332.87,16327.68
1336.52,16303.12
1340.18,16286.73
1343.82,16246.66
1347.47,16305.13
1351.11,16315.77
1354.75,16330.64
1358.39,16415.73
1362.03,16475.29
1365.66,16468.53
1369.29,16442.89
1372.92,16404.49
1376.55,16346.15
1380.17,16268.73
1383.8,16193.58
1387.42,16104.2
1391.03,15989.77
1394.65,15864.82
1398.26,15725.02
1401.87,15640.87
1405.47,15566.56
1409.08,15431.88
1412.68,15351.65
1416.28,15306.19
1419.88,15231.52
1423.47,15158.39
1427.07,15150.42
1430.66,15062.34
1434.24,15006.53
1437.83,14982.1
1441.41,14960.38
1444.99,14948.61
1448.57,14950.41
1452.14,14876.09
1455.72,14730.9
1459.29,14654.9
1462.86,14509.68
1466.42,14365.59
1469.98,14233.77
1473.54,14115.56
1477.1,13965.76
1480.66,13798.51
1484.21,13664.39
1487.76,13523.07
1491.31,13418.66
1494.86,13339.59
1498.4,13272.53
1501.94,13224.92
1505.48,13201.85
1509.02,13170.89
1512.55,13086.11
1516.08,13044.04
1519.61,13001.8
1523.14,12959.69
1526.66,12858.78
1530.19,12721.96
1533.71,12583.98
1537.22,12415.1
1540.74,12250.28
1544.25,12109.91
1547.76,12094.65
1551.27,12152.15
1554.77,12149.5
1558.27,11982.66
1561.77,11659.99
1565.27,11464.8
1568.77,11373.6
1572.26,11371.81
1575.75,11391.71
1579.24,11372.3
1582.72,11315.96
1586.21,11278.69
1589.69,11213.39
1593.17,11129.6
1596.64,11034.73
1600.12,10926.29
1603.59,10796.71
1607.05,10642.09
1610.52,10541.35
1613.98,10445.83
1617.45,10331.63
1620.91,10208.84
1624.36,10096.1
1627.82,10039.77
1631.27,10014.36
1634.72,9930.1
1638.16,9869.16
1641.61,9838.18
1645.05,9808
1648.49,9755.44
1651.93,9675.94
1655.36,9581.23
1658.8,9497.21
1662.23,9404.05
1665.65,9281.38
1669.08,9161.09
1672.5,9019.98
1675.92,8849.09
1679.34,8691.68
1682.76,8582.33
1686.17,8441.99
1689.58,8301.72
1692.99,8178.62
1696.39,8093.29
1699.8,8028.88
1703.2,7915.09
1706.6,7786.79
1709.99,7687.07
1713.39,7662.07
1716.78,7671.07
1720.17,7689.07
1723.56,7681.93
1726.94,7663.52
1730.32,7570.06
1733.7,7450.93
1737.08,7300.23
1740.45,7163.51
1743.83,7021.19
1747.2,6895.99
1750.56,6793.22
1753.93,6682.66
1757.29,6564.74
1760.65,6524.67
1764.01,6447.3
1767.37,6365.95
1770.72,6288.39
1774.07,6228.15
1777.42,6160.93
1780.77,6104.01
1784.11,6063.45
1787.45,6045.42
1790.79,5998.83
1794.13,5949.64
1797.46,5901.35
1800.79,5863.96
1804.12,5795.72
1807.45,5717.53
1810.78,5659.52
1814.1,5605.72
1817.42,5526.2
1820.74,5456.64
1824.05,5357
1827.36,5284
1830.67,5220.53
1833.98,5124.13
1837.29,5066.98
1840.59,4999.8
1843.89,4960.44
1847.19,4923.41
1850.49,4882.14
1853.78,4844.05
1857.07,4807.29
1860.36,4803.58
1863.65,4791.55
1866.93,4761.36
1870.22,4736
1873.5,4693.16
1876.77,4653.56
1880.05,4606.83
1883.32,4558.9
1886.59,4488.09
1889.86,4449.31
1893.12,4400.29
1896.39,4329.38
1899.65,4243.37
1902.91,4192.16
1906.16,4150.58
1909.42,4080.05
1912.67,4048.26
1915.92,4030.11
1919.16,4006.94
1922.41,3985.14
1925.65,3969.47
1928.89,3936.05
1932.13,3930.96
1935.36,3919.34
1938.6,3906.93
1941.83,3858.93
1945.05,3846.92
1948.28,3815.44
1951.5,3785.67
1954.72,3738.25
1957.94,3703.63
1961.16,3667.47
1964.37,3645.81
1967.58,3582.27
1970.79,3525.89
1974,3475.29
1977.2,3431.58
1980.41,3408.67
1983.61,3373.95
1986.8,3334.09
1990,3291.13
1993.19,3275.11
1996.38,3269.5
1999.57,3256.82
2002.76,3210.94
2005.94,3208.61
2009.12,3206.25
2012.3,3195.87
2015.47,3170.78
2018.65,3145.76
2021.82,3130.55
2024.99,3091.28
2028.16,3070.05
2031.32,3052.9
2034.48,3016.96
2037.64,2981.81
2040.8,2954.78
2043.96,2898.76
2047.11,2875.14
2050.26,2848.15
2053.41,2796.75
2056.56,2769.43
2059.7,2745.49
2062.84,2720.58
2065.98,2703.5
2069.12,2690.18
2072.25,2671.02
2075.39,2650.23
2078.52,2645.81
2081.64,2651.09
2084.77,2646.58
2087.89,2623.72
2091.01,2609.24
2094.13,2586.28
2097.25,2568.79
2100.36,2553.98
2103.47,2534.91
2106.58,2496.91
2109.69,2480.59
2112.79,2443.08
2115.9,2422.78
2119,2389.79
2122.09,2346.54
2125.19,2325.05
2128.28,2308.83
2131.37,2293.69
2134.46,2262.32
2137.55,2239.56
2140.63,2236.68
2143.71,2214.53
2146.79,2205.46
2149.87,2213.11
2152.94,2177.52
2156.02,2163.72
2159.09,2154.44
2162.15,2135.52
2165.22,2135.75
2168.28,2119.82
2171.34,2107.97
2174.4,2092.57
2177.46,2058.62
2180.51,2051.18
2183.56,2027.4
2186.61,2026.84
2189.66,2003.73
2192.71,1991.52
2195.75,1968.4
2198.79,1934.9
2201.83,1916.9
2204.86,1903.47
2207.9,1863.69
2210.93,1845.64
2213.96,1825.1
2216.98,1810.23
2220.01,1810.32
2223.03,1792.04
2226.05,1779.58
2229.07,1761.41
2232.08,1754.45
2235.1,1736.23
2238.11,1722.32
2241.12,1714.02
2244.12,1702.75
2247.13,1694.74
2250.13,1690.01
2253.13,1667.5
2256.13,1659.58
2259.12,1638.42
2262.11,1620.57
2265.1,1591.63
2268.09,1586.04
2271.08,1576
2274.06,1560.67
2277.04,1541.49
2280.02,1525.24
2283,1514.85
2285.97,1491.97
2288.95,1480.21
2291.92,1468.52
2294.89,1468.24
2297.85,1457.8
2300.81,1452.19
2303.78,1467
2306.74,1467.11
2309.69,1455.69
2312.65,1426.29
2315.6,1385.77
2318.55,1361.48
2321.5,1457.89
2324.44,1742.84
2327.39,2038.77
2330.33,2064.91
2333.27,1761.91
2336.2,1413.2
2339.14,1297.71
2342.07,1279.15
2345,1296.4
2347.93,1305.45
2350.85,1291.23
2353.77,1274.22
2356.7,1249.79
2359.61,1232.59
2362.53,1227.31
2365.45,1218.76
2368.36,1202.11
2371.27,1196.88
2374.18,1192.8
2377.08,1180.94
2379.98,1176.99
2382.88,1170.56
2385.78,1157.78
2388.68,1151.25
2391.57,1136.24
2394.47,1129.71
2397.36,1113.19
2400.24,1107.6
2403.13,1107.33
2406.01,1101.57
2408.89,1090.27
2411.77,1084.01
2414.65,1078.09
2417.52,1061.54
2420.4,1047.1
2423.27,1050.43
2426.13,1035.3
2429,1023.14
2431.86,1019.75
2434.72,1014.01
2437.58,1011.03
2440.44,1006.84
2443.29,992.47
2446.15,983.04
2449,976.38
2451.85,958.96
2454.69,958.82
2457.54,950.08
2460.38,943.72
2463.22,933.37
2466.05,924.07
2468.89,924.64
2471.72,918.26
2474.55,917.28
2477.38,912.52
2480.21,915.73
2483.03,900.75
2485.85,888.19
2488.67,885.01
2491.49,886.08
2494.3,883.39
2497.12,876.79
2499.93,872.26
2502.74,855.66
2505.54,855.35
2508.35,852.51
2511.15,847.42
2513.95,841.63
2516.75,834.82
2519.54,835.4
2522.34,827.57
2525.13,821.26
2527.92,806.77
2530.7,808.92
2533.49,806.37
2536.27,785.29
2539.05,773.14
2541.83,769.96
2544.61,764.55
2547.38,768.82
2550.15,751.61
2552.92,754.16
2555.69,749.38
2558.45,746.3
2561.22,742.08
2563.98,738.46
2566.74,736.8
2569.5,736.95
2572.25,728.53
2575,725.48
2577.75,717.23
2580.5,713.81
2583.25,719.31
2585.99,711.15
2588.73,703.93
2591.47,685.88
2594.21,680.28
2596.94,684.44
2599.68,679.79
2602.41,681.96
2605.14,673.45
2607.87,668.94
2610.59,650.15
2613.31,641.62
2616.03,645.54
2618.75,638.63
2621.47,633.07
2624.18,631.31
2626.89,623.06
2629.6,625.67
2632.31,628.52
2635.02,613.65
2637.72,612.33
2640.42,613.88
2643.12,618.11
2645.82,607.41
2648.51,599.54
2651.2,601.91
2653.89,596.94
2656.58,590.83
2659.27,593.6
2661.95,587.33
2664.64,582.08
2667.32,574.34
2669.99,569.04
2672.67,569.22
2675.34,562.79
2678.02,556.19
2680.69,549.78
2683.35,555.26
2686.02,552.95
2688.68,541.43
2691.34,538.71
2694,524.79
2696.66,524.18
2699.31,527.28
2701.97,523.69
2704.62,521.79
2707.27,525.67
2709.91,523.39
2712.56,520.02
2715.2,510.31
2717.84,506.14
2720.48,503.33
2723.11,509.9
2725.75,504.12
2728.38,504.81
2731.01,508.82
2733.64,503.42
2736.26,499.79
2738.88,491.44
2741.51,484.22
2744.13,489.04
2746.74,482.51
2749.36,485.17
2751.97,484.97
2754.58,477.23
2757.19,473.28
2759.8,474.99
2762.4,465.59
2765,462.8
2767.61,463.92
2770.2,458.02
2772.8,455.6
2775.4,448.04
2777.99,445.82
2780.58,444.87
2783.17,444.75
2785.75,442.53
2788.34,449.12
2790.92,443.62
2793.5,441.87
2796.08,442.64
2798.65,442.22
2801.23,442.07
2803.8,435.44
2806.37,439.65
2808.94,444.65
2811.5,434.81
2814.06,432.77
2816.63,433.53
2819.19,437.07
2821.74,429.02
2824.3,437.59
2826.85,434.14
2829.4,427.68
2831.95,423.72
2834.5,417.91
2837.04,427.2
2839.59,430.07
2842.13,424.93
2844.67,419.13
2847.2,413.79
2849.74,416.81
2852.27,415.92
2854.8,414.88
2857.33,410.64
2859.86,419.22
2862.38,417.96
2864.91,410.45
2867.43,412.98
2869.95,422.02
2872.46,419.34
2874.98,420.61
2877.49,423.5
2880,432.21
2882.51,423.88
2885.02,427.66
2887.52,418.54
2890.02,417.89
2892.52,435.32
2895.02,437.04
2897.52,431.31
2900.01,427.74
2902.51,432.98
2905,434.06
2907.49,434.35
2909.97,438.16
2912.46,440.4
2914.94,434.03
2917.42,445.32
2919.9,440.29
2922.37,441.85
2924.85,437.04
2927.32,440.62
2929.79,452.85
2932.26,451.92
2934.73,450.62
2937.19,450.43
2939.65,456
2942.11,456.46
2944.57,466.12
2947.03,465.89
2949.48,475.6
2951.94,472.87
2954.39,475.39
2956.84,476.75
2959.28,481.63
2961.73,482.3
2964.17,477.14
2966.61,481.73
2969.05,495.44
2971.49,498
2973.92,505.24
2976.35,503.05
2978.78,506.54
2981.21,516.98
2983.64,518.73
2986.06,518.63
2988.49,514.59
2990.91,520.84
2993.33,531.93
2995.74,551.32
2998.16,561.97
3000.57,558
3002.98,552.34
3005.39,554.78
3007.8,559.64
3010.2,562.51
3012.61,562.54
3015.01,576.32
3017.41,578.61
3019.8,591.22
3022.2,598.6
3024.59,602.71
3026.98,605.86
3029.37,623.8
3031.76,618.25
3034.15,628.89
3036.53,638.69
3038.91,647.87
3041.29,663.26
3043.67,677.87
3046.05,691.45
3048.42,701.17
3050.79,709.95
3053.16,722.22
3055.53,716.53
3057.9,728.02
3060.26,743.65
3062.62,768.64
3064.98,776.42
3067.34,769.86
3069.7,775.52
3072.05,795.23
3074.41,798.27
3076.76,802.28
3079.1,815.9
3081.45,832.78
3083.8,844.52
3086.14,848.46
3088.48,859.19
3090.82,872.5
3093.16,875.49
3095.49,889.66
3097.83,904.88
3100.16,911.46
3102.49,919.45
3104.81,932.58
3107.14,939.16
3109.46,962.54
3111.79,986.49
3114.11,996.77
3116.42,1010.73
3118.74,1024.91
3121.05,1048.86
3123.37,1053.1
3125.68,1077.04
3127.99,1090.03
3130.29,1105.11
3132.6,1115.92
3134.9,1127.43
3137.2,1141.45
3139.5,1142.97
3141.8,1151.99
3144.09,1175.67
3146.39,1192.32
3148.68,1194.7
3150.97,1199.8
3153.25,1206.84
3155.54,1215.66
3157.82,1218.24
3160.11,1220.81
3162.39,1225.43
3164.66,1229.24
3166.94,1231.67
3169.21,1247.65
3171.49,1245.56
3173.76,1254.17
3176.03,1255.15
3178.29,1258.1
3180.56,1261.37
3182.82,1260.46
3185.08,1275.37
3187.34,1269.11
3189.6,1280.83
3191.86,1282.26
3194.11,1284.56
3196.36,1296.18
3198.61,1299.29
3200.86,1290.72
3203.11,1295.39
3205.35,1289.18
3207.59,1296.13
3209.83,1294.06
3212.07,1302.79
3214.31,1287.49
3216.54,1290.98
3218.78,1304.55
3221.01,1296.44
3223.24,1301.94
3225.47,1285.56
3227.69,1267.81
3229.92,1255.56
3232.14,1243.05
3234.36,1227.78
3236.58,1222.86
3238.79,1213.9
3241.01,1206.74
3243.22,1202.62
3245.43,1189.1
3247.64,1175.88
3249.85,1157.52
3252.05,1151.82
3254.26,1146
3256.46,1130.51
3258.66,1130.68
3260.86,1119.23
3263.05,1121.27
3265.25,1107.99
3267.44,1095.62
3269.63,1091.47
3271.82,1084.22
3274.01,1085.02
3276.19,1075.89
3278.38,1081.2
3280.56,1077.61
3282.74,1070.78
3284.92,1075.58
3287.09,1067.15
3289.27,1054.5
3291.44,1046.73
3293.61,1048.6
3295.78,1043.37
3297.95,1028.42
3300.11,1033.69
3302.28,1022.44
3304.44,1031.19
3306.6,1005.93
3308.76,1006.85
3310.91,998.62
3313.07,984.27
3315.22,971.54
3317.37,964.55
3319.52,953.46
3321.67,943.73
3323.81,938.26
3325.95,935.54
3328.1,923.86
3330.24,916.18
3332.37,901.28
3334.51,906.18
3336.65,892.7
3338.78,886.29
3340.91,891.98
3343.04,896.59
3345.17,891.64
3347.29,895.1
3349.41,893.32
3351.54,887.7
3353.66,883.88
3355.78,880.44
3357.89,875.68
3360.01,864.1
3362.12,848.64
3364.23,819.45
3366.34,819.41
3368.45,818.99
3370.55,869.78
3372.66,966.17
3374.76,1043.47
3376.86,964.08
3378.96,635.96
3381.06,252.67